[Sample parameters]
Sample Type:	van der Pauw
Hall Factor =	1.0
Thickness =	3.0 [µm]
L =	10.0 [mm]
Depletion Layer Correction:	Off
22-211-G
[Measurements]
<Step 1: Variable Temperature Measurement>
Start Time:	18.10.2022 16:14:26
Time Completed:	18.10.2022 17:18:46
Elapsed Time:	1:4:21

Starting Temperature:	23.0 [K]
Ending Temperature:	38.0 [K]
Spacing:	Linear Spacing
Temperature Step:	1.0 [K]
Field at:	3.0 [kG]
Field Reversal with Positive field first
Measurement Type:	Hall and Resistivity Measurement
Excitation Current:	1.0 [nA]
Resistance Range:	High
Dwell Time:	2.0 [Sec]
Current Reversal:	On
Geometry selection:	A and B

Temperature [K]	Field [G]	Zero-field Resistivity [ohm cm]
23.501	-9.5000E-2	4.1549E+3
23.571	-4.8750E-2	4.3898E+3
24.228	1.2875E-1	4.0002E+3
25.245	-2.8750E-2	3.6053E+3
26.429	-1.5875E-1	3.3877E+3
27.568	-6.3750E-2	2.8785E+3
28.69	-1.2625E-1	2.4251E+3
29.745	1.2500E-2	1.9811E+3
30.644	-2.7375E-1	1.6501E+3
31.533	-3.1625E-1	1.3196E+3
32.628	-1.1875E-1	1.0487E+3
33.832	-3.1250E-2	7.9600E+2
34.857	-5.8750E-2	6.2566E+2
35.878	-4.2500E-2	5.0387E+2
36.792	2.2375E-1	3.8461E+2
37.631	5.0000E-3	3.0688E+2

Temperature [K]	Field [G]	Resistivity [ohm cm]	Hall Coefficient [cm³/C]	Type	Carrier Density [1/cm³]	Hall Mobility [cm²/(VS)]
23.5	3.0003E+3	4.3746E+3	-3.2624E+5	n	1.9134E+13	7.8519E+1
23.835	3.0000E+3	4.4588E+3	-2.0845E+6	n	2.9945E+12	4.7486E+2
24.682	2.9999E+3	3.7507E+3	-1.4075E+6	n	4.4350E+12	3.5185E+2
25.793	3.0001E+3	3.7188E+3	-1.7487E+6	n	3.5696E+12	4.8504E+2
26.966	2.9999E+3	3.2117E+3	-8.1069E+5	n	7.6999E+12	2.3930E+2
28.08	3.0002E+3	2.6652E+3	-1.3115E+6	n	4.7596E+12	4.5563E+2
29.17	2.9999E+3	2.1999E+3	-1.4612E+6	n	4.2719E+12	6.0253E+2
30.161	2.9999E+3	1.8136E+3	-1.5126E+6	n	4.1269E+12	7.6349E+2
31.005	2.9999E+3	1.4798E+3	-1.4813E+6	n	4.2139E+12	8.9775E+2
31.993	3.0000E+3	1.1691E+3	-1.2583E+6	n	4.9608E+12	9.5352E+2
33.159	2.9999E+3	9.1888E+2	-9.5049E+5	n	6.5673E+12	9.0639E+2
34.327	2.9997E+3	6.9744E+2	-8.8154E+5	n	7.0810E+12	1.1075E+3
35.352	3.0001E+3	5.5632E+2	-7.4257E+5	n	8.4063E+12	1.1869E+3
36.317	3.0002E+3	4.3469E+2	-6.1651E+5	n	1.0125E+13	1.2236E+3
37.188	3.0002E+3	3.4277E+2	-4.9037E+5	n	1.2729E+13	1.2750E+3
38.057	2.9996E+3	2.6967E+2	-4.0487E+5	n	1.5418E+13	1.3193E+3

<Step 2: Variable Temperature Measurement>
Start Time:	18.10.2022 17:18:46
Time Completed:	18.10.2022 18:33:32
Elapsed Time:	1:14:46

Starting Temperature:	39.0 [K]
Ending Temperature:	58.0 [K]
Spacing:	Linear Spacing
Temperature Step:	1.0 [K]
Field at:	3.0 [kG]
Field Reversal with Positive field first
Measurement Type:	Hall and Resistivity Measurement
Excitation Current:	25.0 [nA]
Resistance Range:	High
Dwell Time:	2.0 [Sec]
Current Reversal:	On
Geometry selection:	A and B

Temperature [K]	Field [G]	Zero-field Resistivity [ohm cm]
38.586	-6.2500E-2	2.4204E+2
39.637	1.1750E-1	1.8851E+2
40.728	-1.3000E-1	1.4780E+2
41.751	-1.7625E-1	1.1717E+2
42.729	1.8750E-1	9.3865E+1
43.703	2.5500E-1	7.5999E+1
44.663	-5.0000E-2	6.1914E+1
45.605	1.6250E-1	5.1027E+1
46.56	-7.6250E-2	4.2099E+1
47.502	1.4000E-1	3.5210E+1
48.464	2.0125E-1	2.9364E+1
49.424	-8.6250E-2	2.4727E+1
50.378	1.2125E-1	2.1009E+1
51.324	2.4250E-1	1.7961E+1
52.279	2.3750E-2	1.5448E+1
53.254	1.1000E-1	1.3270E+1
54.213	-7.1250E-2	1.1614E+1
55.189	-1.4750E-1	1.0088E+1
56.147	1.8375E-1	8.8157E+0
57.086	-4.6250E-2	7.7704E+0

Temperature [K]	Field [G]	Resistivity [ohm cm]	Hall Coefficient [cm³/C]	Type	Carrier Density [1/cm³]	Hall Mobility [cm²/(VS)]
39.054	2.9999E+3	2.1315E+2	-2.9817E+5	n	2.0935E+13	1.2319E+3
40.131	2.9997E+3	1.6627E+2	-2.3554E+5	n	2.6501E+13	1.2495E+3
41.195	2.9998E+3	1.3088E+2	-1.8852E+5	n	3.3112E+13	1.2755E+3
42.19	3.0000E+3	1.0464E+2	-1.5186E+5	n	4.1105E+13	1.2961E+3
43.172	2.9999E+3	8.4126E+1	-1.2442E+5	n	5.0171E+13	1.3255E+3
44.13	3.0000E+3	6.8439E+1	-1.0150E+5	n	6.1498E+13	1.3356E+3
45.081	2.9998E+3	5.6102E+1	-8.4092E+4	n	7.4231E+13	1.3582E+3
46.027	3.0002E+3	4.6280E+1	-6.9628E+4	n	8.9651E+13	1.3645E+3
46.967	3.0002E+3	3.8522E+1	-5.7799E+4	n	1.0800E+14	1.3729E+3
47.915	3.0001E+3	3.2156E+1	-4.8942E+4	n	1.2754E+14	1.3900E+3
48.87	3.0001E+3	2.7059E+1	-4.0976E+4	n	1.5234E+14	1.3955E+3
49.834	2.9998E+3	2.2906E+1	-3.5235E+4	n	1.7716E+14	1.4250E+3
50.787	3.0000E+3	1.9517E+1	-2.9832E+4	n	2.0924E+14	1.4200E+3
51.716	2.9997E+3	1.6763E+1	-2.5704E+4	n	2.4285E+14	1.4311E+3
52.683	2.9999E+3	1.4352E+1	-2.2343E+4	n	2.7939E+14	1.4463E+3
53.645	3.0000E+3	1.2501E+1	-1.8777E+4	n	3.3243E+14	1.4151E+3
54.612	2.9999E+3	1.0887E+1	-1.7053E+4	n	3.6605E+14	1.4683E+3
55.569	2.9999E+3	9.4915E+0	-1.4873E+4	n	4.1969E+14	1.4744E+3
56.525	2.9999E+3	8.3937E+0	-1.3047E+4	n	4.7845E+14	1.4800E+3
57.409	3.0000E+3	7.4326E+0	-1.1618E+4	n	5.3727E+14	1.4952E+3

<Step 3: Variable Temperature Measurement>
Start Time:	18.10.2022 18:33:32
Time Completed:	18.10.2022 22:18:52
Elapsed Time:	3:45:15

Starting Temperature:	60.0 [K]
Ending Temperature:	100.0 [K]
Spacing:	Linear Spacing
Temperature Step:	2.0 [K]
Field at:	3.0 [kG]
Field Reversal with Positive field first
Measurement Type:	Hall and Resistivity Measurement
Excitation Current:	1.0 [µA]
Resistance Range:	Low
Dwell Time:	2.0 [Sec]
Current Reversal:	On
Geometry selection:	A and B

Temperature [K]	Field [G]	Zero-field Resistivity [ohm cm]
59.06	5.0000E-3	6.0547E+0
61.06	-1.5500E-1	4.9191E+0
63.086	2.5000E-3	3.9916E+0
65.083	-1.4375E-1	3.2852E+0
67.102	9.5000E-2	2.7351E+0
69.107	1.0125E-1	2.3133E+0
71.105	1.0125E-1	1.9799E+0
73.111	4.6250E-2	1.7156E+0
75.103	-5.3750E-2	1.4997E+0
77.112	-1.1250E-2	1.3250E+0
79.116	9.8750E-2	1.1798E+0
81.002	1.0625E-1	1.0756E+0
83.072	2.8875E-1	9.6868E-1
85.124	2.0375E-1	8.8794E-1
87.112	2.3750E-2	7.9373E-1
89.075	-1.7000E-1	7.1503E-1
91.567	3.3750E-2	6.8740E-1
94.179	7.5000E-3	6.1235E-1
95.271	-1.5750E-1	5.9868E-1
98.739	1.6500E-1	5.4228E-1
100.939	-1.0500E-1	5.0996E-1

Temperature [K]	Field [G]	Resistivity [ohm cm]	Hall Coefficient [cm³/C]	Type	Carrier Density [1/cm³]	Hall Mobility [cm²/(VS)]
59.293	2.9999E+3	5.8739E+0	-8.8507E+3	n	7.0528E+14	1.4618E+3
61.4	3.0001E+3	4.7446E+0	-7.1599E+3	n	8.7183E+14	1.4555E+3
63.484	3.0000E+3	3.8270E+0	-5.7595E+3	n	1.0838E+15	1.4429E+3
65.484	2.9998E+3	3.1556E+0	-4.7182E+3	n	1.3230E+15	1.4362E+3
67.565	2.9999E+3	2.6216E+0	-3.8874E+3	n	1.6058E+15	1.4213E+3
69.584	3.0000E+3	2.2207E+0	-3.2555E+3	n	1.9174E+15	1.4073E+3
71.613	3.0000E+3	1.9019E+0	-2.7502E+3	n	2.2698E+15	1.3890E+3
73.615	3.0000E+3	1.6511E+0	-2.3484E+3	n	2.6581E+15	1.3688E+3
75.637	2.9998E+3	1.4459E+0	-2.0242E+3	n	3.0838E+15	1.3497E+3
77.654	2.9999E+3	1.2793E+0	-1.7549E+3	n	3.5570E+15	1.3244E+3
79.471	3.0001E+3	1.1561E+0	-1.5715E+3	n	3.9720E+15	1.3321E+3
81.107	3.0000E+3	1.0687E+0	-1.4130E+3	n	4.4177E+15	1.3137E+3
83.421	2.9998E+3	9.4068E-1	-1.1500E+3	n	5.4280E+15	1.1872E+3
85.68	3.0001E+3	8.6104E-1	-1.0766E+3	n	5.7980E+15	1.2125E+3
87.752	2.9996E+3	7.7932E-1	-9.8094E+2	n	6.3635E+15	1.2359E+3
89.496	3.0003E+3	7.2548E-1	-7.6726E+2	n	8.1357E+15	1.0730E+3
95.477	2.9998E+3	5.9231E-1	-7.0329E+2	n	8.8757E+15	1.0231E+3
93.059	2.9996E+3	6.4049E-1	-7.3796E+2	n	8.4587E+15	1.2051E+3
96.503	2.9999E+3	5.7516E-1	-6.4736E+2	n	9.6426E+15	1.0813E+3
99.491	3.0002E+3	5.2915E-1	-5.7324E+2	n	1.0889E+16	1.0571E+3
101.504	2.9997E+3	5.0317E-1	-5.3028E+2	n	1.1772E+16	1.0398E+3

<Step 4: Variable Temperature Measurement>
Start Time:	18.10.2022 22:18:52
Time Completed:	19.10.2022 03:56:12
Elapsed Time:	5:37:22

Starting Temperature:	105.0 [K]
Ending Temperature:	320.0 [K]
Spacing:	Linear Spacing
Temperature Step:	5.0 [K]
Field at:	3.0 [kG]
Field Reversal with Positive field first
Measurement Type:	Hall and Resistivity Measurement
Excitation Current:	5.0 [µA]
Resistance Range:	Low
Dwell Time:	2.0 [Sec]
Current Reversal:	On
Geometry selection:	A and B

Temperature [K]	Field [G]	Zero-field Resistivity [ohm cm]
104.991	-1.2625E-1	4.6525E-1
109.859	1.4750E-1	4.2310E-1
114.793	-1.0000E-2	3.9081E-1
119.828	6.5000E-2	3.6611E-1
124.857	5.6250E-2	3.4711E-1
129.86	1.8750E-1	3.3339E-1
134.904	1.3625E-1	3.2286E-1
139.994	1.4625E-1	3.1559E-1
144.989	0.0000E+0	3.1077E-1
149.989	1.7125E-1	3.0781E-1
155.013	-1.3000E-1	3.0650E-1
160.159	1.1750E-1	3.0672E-1
165.114	1.3875E-1	3.0809E-1
170.127	6.2500E-3	3.1062E-1
175.127	-5.8750E-2	3.1411E-1
180.13	6.3750E-2	3.1849E-1
185.171	-1.1750E-1	3.2377E-1
190.218	-9.5000E-2	3.2985E-1
195.224	-8.3750E-2	3.3679E-1
200.23	1.3250E-1	3.4468E-1
205.253	1.5000E-2	3.5359E-1
210.227	-1.0625E-1	3.6357E-1
215.092	-1.1250E-2	3.7413E-1
220.277	-2.6250E-2	3.8488E-1
225.218	-3.2500E-2	3.9216E-1
230.16	-6.2500E-2	3.9518E-1
235.116	-3.5000E-2	3.9748E-1
240.06	-5.5000E-2	4.0245E-1
244.993	-2.3750E-1	4.0935E-1
249.977	-3.7500E-3	4.1743E-1
254.945	8.5000E-2	4.2625E-1
259.913	-5.5000E-2	4.3573E-1
264.908	2.7500E-2	4.4576E-1
269.834	2.0375E-1	4.5622E-1
274.851	-1.9625E-1	4.6723E-1
279.847	-1.0000E-1	4.7846E-1
284.816	6.9375E-2	4.8994E-1
289.765	-1.4500E-1	5.0169E-1
294.606	9.6250E-2	5.1349E-1
299.824	-1.2750E-1	5.2609E-1
304.801	-2.2500E-2	5.3842E-1
309.832	2.4500E-1	5.5104E-1
314.768	1.5000E-2	5.6359E-1
319.736	2.2375E-1	5.7639E-1

Temperature [K]	Field [G]	Resistivity [ohm cm]	Hall Coefficient [cm³/C]	Type	Carrier Density [1/cm³]	Hall Mobility [cm²/(VS)]
105.94	2.9998E+3	4.5514E-1	-4.5872E+2	n	1.3608E+16	9.8597E+2
110.864	2.9997E+3	4.1502E-1	-3.9469E+2	n	1.5816E+16	9.3285E+2
115.841	3.0000E+3	3.8456E-1	-3.4393E+2	n	1.8150E+16	8.8004E+2
120.836	3.0000E+3	3.6138E-1	-3.0603E+2	n	2.0398E+16	8.3590E+2
125.847	2.9998E+3	3.4386E-1	-2.7539E+2	n	2.2667E+16	7.9336E+2
130.866	2.9998E+3	3.3087E-1	-2.4959E+2	n	2.5010E+16	7.4862E+2
135.926	3.0003E+3	3.2119E-1	-2.2830E+2	n	2.7342E+16	7.0712E+2
140.971	3.0001E+3	3.1439E-1	-2.1103E+2	n	2.9580E+16	6.6867E+2
145.97	3.0000E+3	3.0993E-1	-1.9657E+2	n	3.1755E+16	6.3254E+2
150.994	3.0000E+3	3.0735E-1	-1.8426E+2	n	3.3877E+16	5.9862E+2
156.055	2.9999E+3	3.0645E-1	-1.7377E+2	n	3.5922E+16	5.6694E+2
161.161	2.9998E+3	3.0688E-1	-1.6417E+2	n	3.8022E+16	5.3526E+2
166.112	2.9999E+3	3.0857E-1	-1.5656E+2	n	3.9870E+16	5.0817E+2
171.121	2.9999E+3	3.1129E-1	-1.4983E+2	n	4.1661E+16	4.8236E+2
176.119	3.0001E+3	3.1498E-1	-1.4329E+2	n	4.3563E+16	4.5619E+2
181.135	2.9999E+3	3.1957E-1	-1.3814E+2	n	4.5187E+16	4.3374E+2
186.182	2.9999E+3	3.2504E-1	-1.3349E+2	n	4.6760E+16	4.1231E+2
191.221	2.9997E+3	3.3135E-1	-1.2927E+2	n	4.8288E+16	3.9190E+2
196.241	3.0001E+3	3.3848E-1	-1.2562E+2	n	4.9690E+16	3.7300E+2
201.236	3.0001E+3	3.4655E-1	-1.2239E+2	n	5.1003E+16	3.5507E+2
206.242	2.9998E+3	3.5571E-1	-1.1945E+2	n	5.2257E+16	3.3783E+2
211.236	2.9998E+3	3.6598E-1	-1.1734E+2	n	5.3196E+16	3.2276E+2
216.118	2.9998E+3	3.7661E-1	-1.1529E+2	n	5.4143E+16	3.0816E+2
221.27	3.0001E+3	3.8684E-1	-1.1275E+2	n	5.5364E+16	2.9295E+2
226.219	3.0002E+3	3.9321E-1	-1.0976E+2	n	5.6871E+16	2.7988E+2
231.164	3.0000E+3	3.9562E-1	-1.0569E+2	n	5.9063E+16	2.6744E+2
236.127	2.9996E+3	3.9839E-1	-1.0192E+2	n	6.1248E+16	2.5641E+2
241.062	3.0000E+3	4.0391E-1	-9.8878E+1	n	6.3131E+16	2.4569E+2
246.017	2.9999E+3	4.1111E-1	-9.6400E+1	n	6.4753E+16	2.3549E+2
251.004	3.0000E+3	4.1939E-1	-9.4442E+1	n	6.6096E+16	2.2625E+2
255.966	2.9996E+3	4.2839E-1	-9.2771E+1	n	6.7286E+16	2.1764E+2
260.939	2.9998E+3	4.3802E-1	-9.0899E+1	n	6.8672E+16	2.0862E+2
265.901	2.9999E+3	4.4810E-1	-8.9414E+1	n	6.9812E+16	2.0059E+2
270.858	2.9999E+3	4.5872E-1	-8.8148E+1	n	7.0815E+16	1.9321E+2
275.877	2.9998E+3	4.6986E-1	-8.6798E+1	n	7.1916E+16	1.8577E+2
280.854	2.9998E+3	4.8111E-1	-8.5629E+1	n	7.2898E+16	1.7897E+2
285.841	3.0000E+3	4.9271E-1	-8.4658E+1	n	7.3734E+16	1.7279E+2
290.783	3.0000E+3	5.0451E-1	-8.3625E+1	n	7.4645E+16	1.6669E+2
295.693	3.0003E+3	5.1642E-1	-8.2529E+1	n	7.5636E+16	1.6072E+2
300.834	3.0001E+3	5.2897E-1	-8.1731E+1	n	7.6375E+16	1.5536E+2
305.842	3.0004E+3	5.4140E-1	-8.0770E+1	n	7.7284E+16	1.5001E+2
310.836	3.0001E+3	5.5400E-1	-7.9871E+1	n	7.8153E+16	1.4495E+2
315.806	2.9999E+3	5.6664E-1	-7.9148E+1	n	7.8867E+16	1.4044E+2
320.761	3.0001E+3	5.7945E-1	-7.8523E+1	n	7.9495E+16	1.3623E+2

<Step 5: Go to Temperature 300.0 [K]>
Start Time:	19.10.2022 03:56:12
Time Completed:	19.10.2022 04:26:43
Elapsed Time:	0:30:31


